WaveLength(nm) ,Level(dBm)    
730.00000      ,-88.427       
730.13000      ,-88.424       
730.26000      ,-76.660       
730.39000      ,-79.610       
730.52000      ,-77.144       
730.65000      ,-75.489       
730.78000      ,-74.000       
730.91000      ,-81.593       
731.04000      ,-73.509       
731.17000      ,-88.475       
731.30000      ,-88.472       
731.43000      ,-74.595       
731.56000      ,-74.886       
731.69000      ,-88.463       
731.82000      ,-88.459       
731.95000      ,-74.915       
732.08000      ,-88.530       
732.21000      ,-76.766       
732.34000      ,-85.513       
732.47000      ,-88.520       
732.60000      ,-76.161       
732.73000      ,-88.513       
732.86000      ,-77.718       
732.99000      ,-79.264       
733.12000      ,-79.338       
733.25000      ,-88.578       
733.38000      ,-75.033       
733.51000      ,-83.256       
733.64000      ,-76.807       
733.77000      ,-73.881       
733.90000      ,-81.079       
734.03000      ,-75.414       
734.16000      ,-88.633       
734.29000      ,-75.166       
734.42000      ,-71.689       
734.55000      ,-88.623       
734.68000      ,-72.776       
734.81000      ,-75.562       
734.94000      ,-69.041       
735.07000      ,-84.539       
735.20000      ,-76.084       
735.33000      ,-80.900       
735.46000      ,-82.445       
735.59000      ,-88.674       
735.72000      ,-88.671       
735.85000      ,-73.616       
735.98000      ,-77.800       
736.11000      ,-78.096       
736.24000      ,-83.174       
736.37000      ,-77.462       
736.50000      ,-74.321       
736.63000      ,-88.726       
736.76000      ,-74.377       
736.89000      ,-74.341       
737.02000      ,-74.581       
737.15000      ,-78.459       
737.28000      ,-88.789       
737.41000      ,-72.158       
737.54000      ,-76.229       
737.67000      ,-78.525       
737.80000      ,-79.043       
737.93000      ,-74.299       
738.06000      ,-78.280       
738.19000      ,-88.846       
738.32000      ,-80.149       
738.45000      ,-72.523       
738.58000      ,-82.399       
738.71000      ,-73.593       
738.84000      ,-88.826       
738.97000      ,-74.574       
739.10000      ,-76.207       
739.23000      ,-80.090       
739.36000      ,-74.950       
739.49000      ,-74.513       
739.62000      ,-73.623       
739.75000      ,-88.883       
739.88000      ,-76.783       
740.01000      ,-88.959       
740.14000      ,-78.785       
740.27000      ,-70.402       
740.40000      ,-88.947       
740.53000      ,-88.943       
740.66000      ,-72.446       
740.79000      ,-75.591       
740.92000      ,-76.627       
741.05000      ,-75.709       
741.18000      ,-73.374       
741.31000      ,-73.322       
741.44000      ,-76.959       
741.57000      ,-74.556       
741.70000      ,-88.992       
741.83000      ,-74.246       
741.96000      ,-74.241       
742.09000      ,-72.960       
742.22000      ,-74.716       
742.35000      ,-78.413       
742.48000      ,-72.739       
742.61000      ,-77.231       
742.74000      ,-78.041       
742.87000      ,-89.041       
743.00000      ,-80.673       
743.13000      ,-75.465       
743.26000      ,-74.119       
743.39000      ,-77.588       
743.52000      ,-73.792       
743.65000      ,-87.061       
743.78000      ,-77.280       
743.91000      ,-89.094       
744.04000      ,-79.935       
744.17000      ,-73.515       
744.30000      ,-77.646       
744.43000      ,-82.537       
744.56000      ,-74.879       
744.69000      ,-89.156       
744.82000      ,-75.459       
744.95000      ,-89.147       
745.08000      ,-75.969       
745.21000      ,-89.228       
745.34000      ,-89.223       
745.47000      ,-77.820       
745.60000      ,-89.214       
745.73000      ,-81.575       
745.86000      ,-89.205       
745.99000      ,-75.435       
746.12000      ,-74.909       
746.25000      ,-75.898       
746.38000      ,-75.439       
746.51000      ,-72.741       
746.64000      ,-74.439       
746.77000      ,-89.263       
746.90000      ,-72.964       
747.03000      ,-76.746       
747.16000      ,-76.693       
747.29000      ,-76.156       
747.42000      ,-78.328       
747.55000      ,-77.991       
747.68000      ,-73.501       
747.81000      ,-75.338       
747.94000      ,-86.302       
748.07000      ,-76.897       
748.20000      ,-72.476       
748.33000      ,-76.211       
748.46000      ,-89.386       
748.59000      ,-89.381       
748.72000      ,-87.335       
748.85000      ,-80.026       
748.98000      ,-79.454       
749.11000      ,-77.581       
749.24000      ,-77.633       
749.37000      ,-81.964       
749.50000      ,-79.355       
749.63000      ,-77.183       
749.76000      ,-79.431       
749.89000      ,-89.426       
750.02000      ,-77.111       
750.15000      ,-73.973       
750.28000      ,-89.506       
750.41000      ,-75.998       
750.54000      ,-77.677       
750.67000      ,-73.903       
750.80000      ,-89.485       
750.93000      ,-78.209       
751.06000      ,-73.661       
751.19000      ,-89.567       
751.32000      ,-76.098       
751.45000      ,-76.768       
751.58000      ,-76.454       
751.71000      ,-89.545       
751.84000      ,-76.359       
751.97000      ,-89.535       
752.10000      ,-76.531       
752.23000      ,-76.318       
752.36000      ,-78.683       
752.49000      ,-74.587       
752.62000      ,-81.281       
752.75000      ,-73.327       
752.88000      ,-89.595       
753.01000      ,-77.284       
753.14000      ,-83.663       
753.27000      ,-74.493       
753.40000      ,-79.103       
753.53000      ,-77.625       
753.66000      ,-89.661       
753.79000      ,-81.460       
753.92000      ,-89.650       
754.05000      ,-89.745       
754.18000      ,-76.559       
754.31000      ,-78.211       
754.44000      ,-89.728       
754.57000      ,-88.261       
754.70000      ,-89.716       
754.83000      ,-73.541       
754.96000      ,-75.867       
755.09000      ,-72.882       
755.22000      ,-78.035       
755.35000      ,-75.318       
755.48000      ,-74.927       
755.61000      ,-74.096       
755.74000      ,-77.897       
755.87000      ,-74.155       
756.00000      ,-73.844       
756.13000      ,-72.534       
756.26000      ,-73.281       
756.39000      ,-77.698       
756.52000      ,-73.733       
756.65000      ,-79.834       
756.78000      ,-79.336       
756.91000      ,-89.822       
757.04000      ,-73.293       
757.17000      ,-79.196       
757.30000      ,-75.080       
757.43000      ,-79.649       
757.56000      ,-89.896       
757.69000      ,-77.903       
757.82000      ,-89.884       
757.95000      ,-78.059       
758.08000      ,-83.165       
758.21000      ,-74.839       
758.34000      ,-77.364       
758.47000      ,-89.959       
758.60000      ,-80.221       
758.73000      ,-72.654       
758.86000      ,-75.437       
758.99000      ,-72.978       
759.12000      ,-75.149       
759.25000      ,-82.104       
759.38000      ,-73.667       
759.51000      ,-76.919       
759.64000      ,-86.585       
759.77000      ,-75.348       
759.90000      ,-73.312       
760.03000      ,-76.714       
760.16000      ,-77.637       
760.29000      ,-72.362       
760.42000      ,-72.356       
760.55000      ,-70.976       
760.68000      ,-75.656       
760.81000      ,-77.317       
760.94000      ,-73.462       
761.07000      ,-78.170       
761.20000      ,-74.964       
761.33000      ,-74.931       
761.46000      ,-73.842       
761.59000      ,-71.264       
761.72000      ,-69.756       
761.85000      ,-70.311       
761.98000      ,-71.154       
762.11000      ,-72.732       
762.24000      ,-73.954       
762.37000      ,-75.546       
762.50000      ,-74.904       
762.63000      ,-71.848       
762.76000      ,-72.383       
762.89000      ,-73.898       
763.02000      ,-71.270       
763.15000      ,-71.699       
763.28000      ,-71.344       
763.41000      ,-71.806       
763.54000      ,-75.091       
763.67000      ,-76.702       
763.80000      ,-73.352       
763.93000      ,-72.140       
764.06000      ,-73.418       
764.19000      ,-73.646       
764.32000      ,-72.982       
764.45000      ,-72.833       
764.58000      ,-71.569       
764.71000      ,-70.113       
764.84000      ,-72.874       
764.97000      ,-71.443       
765.10000      ,-72.135       
765.23000      ,-71.104       
765.36000      ,-70.038       
765.49000      ,-69.220       
765.62000      ,-71.400       
765.75000      ,-68.454       
765.88000      ,-69.118       
766.01000      ,-69.810       
766.14000      ,-69.787       
766.27000      ,-69.633       
766.40000      ,-68.626       
766.53000      ,-68.957       
766.66000      ,-70.178       
766.79000      ,-69.667       
766.92000      ,-70.732       
767.05000      ,-71.263       
767.18000      ,-70.281       
767.31000      ,-69.943       
767.44000      ,-69.391       
767.57000      ,-69.326       
767.70000      ,-70.976       
767.83000      ,-71.042       
767.96000      ,-73.226       
768.09000      ,-74.548       
768.22000      ,-70.904       
768.35000      ,-69.999       
768.48000      ,-68.639       
768.61000      ,-69.723       
768.74000      ,-69.359       
768.87000      ,-69.607       
769.00000      ,-68.956       
769.13000      ,-68.723       
769.26000      ,-69.849       
769.39000      ,-68.407       
769.52000      ,-68.935       
769.65000      ,-70.713       
769.78000      ,-68.240       
769.91000      ,-67.456       
770.04000      ,-66.834       
770.17000      ,-68.308       
770.30000      ,-68.670       
770.43000      ,-68.576       
770.56000      ,-67.919       
770.69000      ,-66.585       
770.82000      ,-66.395       
770.95000      ,-66.897       
771.08000      ,-67.809       
771.21000      ,-69.787       
771.34000      ,-69.380       
771.47000      ,-68.562       
771.60000      ,-67.427       
771.73000      ,-66.806       
771.86000      ,-67.569       
771.99000      ,-67.740       
772.12000      ,-68.505       
772.25000      ,-68.539       
772.38000      ,-66.965       
772.51000      ,-66.062       
772.64000      ,-65.789       
772.77000      ,-65.468       
772.90000      ,-65.110       
773.03000      ,-65.535       
773.16000      ,-66.428       
773.29000      ,-65.790       
773.42000      ,-66.125       
773.55000      ,-66.996       
773.68000      ,-70.564       
773.81000      ,-71.052       
773.94000      ,-70.192       
774.07000      ,-68.689       
774.20000      ,-66.183       
774.33000      ,-65.815       
774.46000      ,-66.116       
774.59000      ,-64.305       
774.72000      ,-63.961       
774.85000      ,-65.120       
774.98000      ,-66.118       
775.11000      ,-66.118       
775.24000      ,-66.289       
775.37000      ,-65.795       
775.50000      ,-65.929       
775.63000      ,-64.461       
775.76000      ,-64.486       
775.89000      ,-65.141       
776.02000      ,-64.801       
776.15000      ,-65.852       
776.28000      ,-67.694       
776.41000      ,-67.823       
776.54000      ,-68.327       
776.67000      ,-67.591       
776.80000      ,-68.977       
776.93000      ,-67.906       
777.06000      ,-66.085       
777.19000      ,-66.205       
777.32000      ,-65.804       
777.45000      ,-63.923       
777.58000      ,-62.403       
777.71000      ,-62.357       
777.84000      ,-63.175       
777.97000      ,-63.687       
778.10000      ,-64.844       
778.23000      ,-65.913       
778.36000      ,-64.927       
778.49000      ,-65.747       
778.62000      ,-65.375       
778.75000      ,-64.864       
778.88000      ,-65.262       
779.01000      ,-65.062       
779.14000      ,-65.235       
779.27000      ,-66.417       
779.40000      ,-64.111       
779.53000      ,-61.440       
779.66000      ,-59.768       
779.79000      ,-59.580       
779.92000      ,-60.145       
780.05000      ,-59.906       
780.18000      ,-60.749       
780.31000      ,-62.300       
780.44000      ,-62.848       
780.57000      ,-63.913       
780.70000      ,-66.549       
780.83000      ,-64.395       
780.96000      ,-62.923       
781.09000      ,-62.168       
781.22000      ,-61.343       
781.35000      ,-60.029       
781.48000      ,-60.963       
781.61000      ,-62.267       
781.74000      ,-62.640       
781.87000      ,-63.167       
782.00000      ,-63.462       
782.13000      ,-65.230       
782.26000      ,-64.904       
782.39000      ,-64.009       
782.52000      ,-63.251       
782.65000      ,-63.091       
782.78000      ,-62.444       
782.91000      ,-60.330       
783.04000      ,-59.401       
783.17000      ,-57.943       
783.30000      ,-57.402       
783.43000      ,-58.206       
783.56000      ,-58.549       
783.69000      ,-58.235       
783.82000      ,-58.543       
783.95000      ,-59.257       
784.08000      ,-59.040       
784.21000      ,-58.772       
784.34000      ,-59.357       
784.47000      ,-60.550       
784.60000      ,-61.682       
784.73000      ,-61.552       
784.86000      ,-60.586       
784.99000      ,-60.352       
785.12000      ,-61.096       
785.25000      ,-61.167       
785.38000      ,-61.234       
785.51000      ,-61.169       
785.64000      ,-60.319       
785.77000      ,-59.653       
785.90000      ,-58.670       
786.03000      ,-58.398       
786.16000      ,-58.611       
786.29000      ,-58.845       
786.42000      ,-59.063       
786.55000      ,-59.762       
786.68000      ,-59.171       
786.81000      ,-57.495       
786.94000      ,-56.726       
787.07000      ,-56.440       
787.20000      ,-55.927       
787.33000      ,-55.581       
787.46000      ,-56.619       
787.59000      ,-58.923       
787.72000      ,-60.943       
787.85000      ,-61.503       
787.98000      ,-61.068       
788.11000      ,-59.077       
788.24000      ,-57.694       
788.37000      ,-57.179       
788.50000      ,-57.637       
788.63000      ,-59.236       
788.76000      ,-60.059       
788.89000      ,-59.775       
789.02000      ,-59.784       
789.15000      ,-59.049       
789.28000      ,-58.412       
789.41000      ,-59.293       
789.54000      ,-60.918       
789.67000      ,-62.162       
789.80000      ,-62.794       
789.93000      ,-62.653       
790.06000      ,-60.669       
790.19000      ,-59.650       
790.32000      ,-60.399       
790.45000      ,-61.301       
790.58000      ,-60.116       
790.71000      ,-59.930       
790.84000      ,-60.381       
790.97000      ,-60.352       
791.10000      ,-61.087       
791.23000      ,-61.144       
791.36000      ,-60.832       
791.49000      ,-61.205       
791.62000      ,-62.265       
791.75000      ,-63.700       
791.88000      ,-63.306       
792.01000      ,-61.186       
792.14000      ,-59.708       
792.27000      ,-59.672       
792.40000      ,-59.296       
792.53000      ,-59.444       
792.66000      ,-59.648       
792.79000      ,-59.239       
792.92000      ,-59.659       
793.05000      ,-60.677       
793.18000      ,-61.717       
793.31000      ,-62.747       
793.44000      ,-63.946       
793.57000      ,-64.205       
793.70000      ,-63.788       
793.83000      ,-62.713       
793.96000      ,-61.061       
794.09000      ,-60.182       
794.22000      ,-59.365       
794.35000      ,-57.831       
794.48000      ,-57.310       
794.61000      ,-57.241       
794.74000      ,-57.927       
794.87000      ,-60.143       
795.00000      ,-60.995       
795.13000      ,-61.138       
795.26000      ,-61.391       
795.39000      ,-61.719       
795.52000      ,-62.436       
795.65000      ,-62.778       
795.78000      ,-61.443       
795.91000      ,-61.319       
796.04000      ,-62.414       
796.17000      ,-64.267       
796.30000      ,-63.425       
796.43000      ,-62.333       
796.56000      ,-60.855       
796.69000      ,-60.153       
796.82000      ,-59.090       
796.95000      ,-57.708       
797.08000      ,-57.017       
797.21000      ,-56.768       
797.34000      ,-56.970       
797.47000      ,-58.335       
797.60000      ,-59.538       
797.73000      ,-59.611       
797.86000      ,-59.710       
797.99000      ,-59.544       
798.12000      ,-58.959       
798.25000      ,-59.352       
798.38000      ,-59.661       
798.51000      ,-60.150       
798.64000      ,-61.877       
798.77000      ,-63.087       
798.90000      ,-61.999       
799.03000      ,-61.493       
799.16000      ,-62.118       
799.29000      ,-61.249       
799.42000      ,-60.229       
799.55000      ,-60.047       
799.68000      ,-60.255       
799.81000      ,-60.806       
799.94000      ,-61.314       
800.07000      ,-59.922       
800.20000      ,-59.714       
800.33000      ,-60.444       
800.46000      ,-60.716       
800.59000      ,-60.288       
800.72000      ,-60.703       
800.85000      ,-62.646       
800.98000      ,-61.777       
801.11000      ,-60.470       
801.24000      ,-60.229       
801.37000      ,-60.400       
801.50000      ,-60.143       
801.63000      ,-60.193       
801.76000      ,-59.551       
801.89000      ,-58.505       
802.02000      ,-57.891       
802.15000      ,-57.684       
802.28000      ,-58.571       
802.41000      ,-58.471       
802.54000      ,-58.427       
802.67000      ,-59.865       
802.80000      ,-61.756       
802.93000      ,-62.474       
803.06000      ,-62.782       
803.19000      ,-65.304       
803.32000      ,-64.199       
803.45000      ,-62.637       
803.58000      ,-62.703       
803.71000      ,-61.489       
803.84000      ,-59.702       
803.97000      ,-58.973       
804.10000      ,-58.997       
804.23000      ,-59.295       
804.36000      ,-59.472       
804.49000      ,-59.822       
804.62000      ,-59.661       
804.75000      ,-60.547       
804.88000      ,-61.899       
805.01000      ,-63.087       
805.14000      ,-63.111       
805.27000      ,-63.226       
805.40000      ,-63.327       
805.53000      ,-63.556       
805.66000      ,-64.228       
805.79000      ,-64.834       
805.92000      ,-64.516       
806.05000      ,-64.480       
806.18000      ,-65.044       
806.31000      ,-63.933       
806.44000      ,-63.746       
806.57000      ,-64.853       
806.70000      ,-66.602       
806.83000      ,-66.278       
806.96000      ,-64.974       
807.09000      ,-64.383       
807.22000      ,-63.728       
807.35000      ,-64.054       
807.48000      ,-65.313       
807.61000      ,-65.163       
807.74000      ,-66.802       
807.87000      ,-68.310       
808.00000      ,-68.858       
808.13000      ,-68.559       
808.26000      ,-67.264       
808.39000      ,-65.174       
808.52000      ,-64.368       
808.65000      ,-65.547       
808.78000      ,-68.062       
808.91000      ,-69.025       
809.04000      ,-68.459       
809.17000      ,-69.162       
809.30000      ,-69.422       
809.43000      ,-70.360       
809.56000      ,-69.751       
809.69000      ,-67.821       
809.82000      ,-66.445       
809.95000      ,-66.748       
810.08000      ,-67.522       
810.21000      ,-66.850       
810.34000      ,-66.310       
810.47000      ,-66.956       
810.60000      ,-68.067       
810.73000      ,-68.254       
810.86000      ,-69.601       
810.99000      ,-70.389       
811.12000      ,-69.747       
811.25000      ,-68.066       
811.38000      ,-68.514       
811.51000      ,-67.918       
811.64000      ,-67.318       
811.77000      ,-68.106       
811.90000      ,-68.376       
812.03000      ,-67.903       
812.16000      ,-66.430       
812.29000      ,-65.932       
812.42000      ,-65.853       
812.55000      ,-66.420       
812.68000      ,-66.870       
812.81000      ,-67.373       
812.94000      ,-67.132       
813.07000      ,-68.188       
813.20000      ,-69.137       
813.33000      ,-70.169       
813.46000      ,-70.297       
813.59000      ,-71.406       
